Frequenz/GHz	Spannung/V
2.500000	0.664916
2.505000	0.665031
2.510000	0.667381
2.515000	0.668396
2.520000	0.667241
2.525000	0.665716
2.530000	0.664376
2.535000	0.663051
2.540000	0.664056
2.545000	0.662761
2.550000	0.658506
2.555000	0.652971
2.560000	0.644766
2.565000	0.630371
2.570000	0.588216
2.575000	0.408801
2.580000	0.212946
2.585000	0.551851
2.590000	0.623761
2.595000	0.646561
2.600000	0.656511
2.605000	0.659546
2.610000	0.659851
2.615000	0.660671
2.620000	0.662866
2.625000	0.665446
2.630000	0.665841
2.635000	0.663596
2.640000	0.661936
2.645000	0.661511
2.650000	0.661306
2.655000	0.660191
2.660000	0.655771
2.665000	0.648261
2.670000	0.636961
2.675000	0.609766
2.680000	0.520131
2.685000	0.144034
2.690000	0.445746
2.695000	0.596986
2.700000	0.635121
2.705000	0.651201
2.710000	0.657866
2.715000	0.659326
2.720000	0.661021
2.725000	0.662971
2.730000	0.662946
2.735000	0.661396
2.740000	0.661081
2.745000	0.660226
2.750000	0.658436
2.755000	0.657691
2.760000	0.655371
2.765000	0.651536
2.770000	0.646501
2.775000	0.638181
2.780000	0.621431
2.785000	0.574286
2.790000	0.383561
2.795000	0.210856
2.800000	0.539131
2.805000	0.615346
2.810000	0.639856
2.815000	0.650306
2.820000	0.654911
2.825000	0.658146
2.830000	0.660106
2.835000	0.661581
2.840000	0.662391
2.845000	0.662636
2.850000	0.661786
2.855000	0.661591
2.860000	0.661151
2.865000	0.661481
2.870000	0.661251
2.875000	0.658511
2.880000	0.651521
2.885000	0.640041
2.890000	0.610081
2.895000	0.504936
2.900000	0.103530
2.905000	0.444091
2.910000	0.596586
2.915000	0.637941
2.920000	0.652966
2.925000	0.660276
2.930000	0.663291
2.935000	0.665156
2.940000	0.666491
2.945000	0.668026
2.950000	0.668431
2.955000	0.667091
2.960000	0.666141
2.965000	0.665671
2.970000	0.665526
2.975000	0.664166
2.980000	0.659781
2.985000	0.652961
2.990000	0.643161
2.995000	0.623131
3.000000	0.562281
3.005000	0.332916
3.010000	0.221721
3.015000	0.535166
3.020000	0.614496
3.025000	0.640926
3.030000	0.652041
3.035000	0.656801
3.040000	0.658526
3.045000	0.659081
3.050000	0.659346
3.055000	0.659186
3.060000	0.657691
3.065000	0.656616
3.070000	0.656601
3.075000	0.654026
3.080000	0.652971
3.085000	0.649591
3.090000	0.644681
3.095000	0.637386
3.100000	0.621721
3.105000	0.583091
3.110000	0.455771
3.115000	0.046977
3.120000	0.429486
3.125000	0.575736
3.130000	0.618961
3.135000	0.634881
3.140000	0.642621
3.145000	0.647381
3.150000	0.649551
3.155000	0.650131
3.160000	0.650141
3.165000	0.651266
3.170000	0.652531
3.175000	0.651441
3.180000	0.651896
3.185000	0.650516
3.190000	0.649471
3.195000	0.647811
3.200000	0.642261
3.205000	0.630921
3.210000	0.605201
3.215000	0.534596
3.220000	0.275916
3.225000	0.238496
3.230000	0.526271
3.235000	0.602831
3.240000	0.628876
3.245000	0.641221
3.250000	0.648221
3.255000	0.651846
3.260000	0.653801
3.265000	0.654971
3.270000	0.654791
3.275000	0.655326
3.280000	0.655731
3.285000	0.655401
3.290000	0.653941
3.295000	0.651741
3.300000	0.647746
3.305000	0.642386
3.310000	0.633081
3.315000	0.615141
3.320000	0.570191
3.325000	0.422551
3.330000	0.036709
3.335000	0.439061
3.340000	0.574481
3.345000	0.616266
3.350000	0.633341
3.355000	0.642556
3.360000	0.648121
3.365000	0.652011
3.370000	0.653331
3.375000	0.653321
3.380000	0.654116
3.385000	0.654816
3.390000	0.654071
3.395000	0.651866
3.400000	0.648701
3.405000	0.647261
3.410000	0.645381
3.415000	0.637751
3.420000	0.622511
3.425000	0.592421
3.430000	0.508261
3.435000	0.203621
3.440000	0.289601
3.445000	0.535631
3.450000	0.603001
3.455000	0.627391
3.460000	0.639791
3.465000	0.646771
3.470000	0.648181
3.475000	0.648156
3.480000	0.649381
3.485000	0.651581
3.490000	0.652351
3.495000	0.650871
3.500000	0.648611
