Frequenz/GHz	Spannung/V
2.500000	0.654931
2.505000	0.660861
2.510000	0.665771
2.515000	0.667851
2.520000	0.667841
2.525000	0.665811
2.530000	0.664631
2.535000	0.663926
2.540000	0.665171
2.545000	0.663906
2.550000	0.659791
2.555000	0.655561
2.560000	0.646786
2.565000	0.631101
2.570000	0.583541
2.575000	0.360576
2.580000	0.343431
2.585000	0.585251
2.590000	0.634876
2.595000	0.652671
2.600000	0.659561
2.605000	0.661401
2.610000	0.661251
2.615000	0.661081
2.620000	0.662771
2.625000	0.664771
2.630000	0.665211
2.635000	0.662751
2.640000	0.659701
2.645000	0.658711
2.650000	0.652791
2.655000	0.644671
2.660000	0.620876
2.665000	0.545941
2.670000	0.218231
2.675000	0.445061
2.680000	0.604841
2.685000	0.641281
2.690000	0.652121
2.695000	0.655841
2.700000	0.659341
2.705000	0.663861
2.710000	0.665301
2.715000	0.663781
2.720000	0.663091
2.725000	0.663321
2.730000	0.661966
2.735000	0.659181
2.740000	0.654206
2.745000	0.648661
2.750000	0.636586
2.755000	0.608876
2.760000	0.510631
2.765000	0.144148
2.770000	0.488071
2.775000	0.605821
2.780000	0.636396
2.785000	0.648991
2.790000	0.655831
2.795000	0.658311
2.800000	0.658796
2.805000	0.660286
2.810000	0.661261
2.815000	0.661881
2.820000	0.661006
2.825000	0.660301
2.830000	0.658936
2.835000	0.656276
2.840000	0.646801
2.845000	0.633156
2.850000	0.594301
2.855000	0.442171
2.860000	0.181522
2.865000	0.537861
2.870000	0.623286
2.875000	0.648521
2.880000	0.657611
2.885000	0.662561
2.890000	0.666631
2.895000	0.669521
2.900000	0.670111
2.905000	0.669796
2.910000	0.669676
2.915000	0.669556
2.920000	0.667671
2.925000	0.664636
2.930000	0.658531
2.935000	0.649531
2.940000	0.628211
2.945000	0.563986
2.950000	0.292361
2.955000	0.345351
2.960000	0.578326
2.965000	0.634111
2.970000	0.653516
2.975000	0.661461
2.980000	0.665251
2.985000	0.666326
2.990000	0.666741
2.995000	0.668451
3.000000	0.667951
3.005000	0.667331
3.010000	0.665416
3.015000	0.662201
3.020000	0.660321
3.025000	0.654106
3.030000	0.641056
3.035000	0.609011
3.040000	0.507726
3.045000	0.132164
3.050000	0.432936
3.055000	0.592121
3.060000	0.633331
3.065000	0.646961
3.070000	0.653446
3.075000	0.656186
3.080000	0.658366
3.085000	0.658561
3.090000	0.657771
3.095000	0.657531
3.100000	0.656591
3.105000	0.655191
3.110000	0.652461
3.115000	0.649111
3.120000	0.640686
3.125000	0.621346
3.130000	0.577961
3.135000	0.427191
3.140000	0.096969
3.145000	0.487806
3.150000	0.598451
3.155000	0.629991
3.160000	0.641591
3.165000	0.648166
3.170000	0.652521
3.175000	0.654271
3.180000	0.655181
3.185000	0.655191
3.190000	0.656196
3.195000	0.657001
3.200000	0.655441
3.205000	0.652191
3.210000	0.645926
3.215000	0.636851
3.220000	0.616466
3.225000	0.558306
3.230000	0.340456
3.235000	0.217501
3.240000	0.530476
3.245000	0.610951
3.250000	0.637651
3.255000	0.648131
3.260000	0.653531
3.265000	0.656951
3.270000	0.657936
3.275000	0.659171
3.280000	0.658981
3.285000	0.657856
3.290000	0.655986
3.295000	0.653666
3.300000	0.649861
3.305000	0.643451
3.310000	0.630391
3.315000	0.601081
3.320000	0.515166
3.325000	0.192441
3.330000	0.353031
3.335000	0.561061
3.340000	0.615966
3.345000	0.635901
3.350000	0.645076
3.355000	0.650761
3.360000	0.654051
3.365000	0.656421
3.370000	0.656921
3.375000	0.655746
3.380000	0.655081
3.385000	0.654291
3.390000	0.650761
3.395000	0.645071
3.400000	0.636931
3.405000	0.620181
3.410000	0.580161
3.415000	0.440536
3.420000	0.072428
3.425000	0.459956
3.430000	0.588806
3.435000	0.627471
3.440000	0.642371
3.445000	0.647236
3.450000	0.649656
3.455000	0.651171
3.460000	0.653451
3.465000	0.654751
3.470000	0.652106
3.475000	0.648906
3.480000	0.647371
3.485000	0.645921
3.490000	0.640396
3.495000	0.628671
3.500000	0.604141
