Frequenz/GHz	Spannung/V
2.500000	0.666506
2.505000	0.665651
2.510000	0.665926
2.515000	0.662806
2.520000	0.661951
2.525000	0.655676
2.530000	0.647281
2.535000	0.630941
2.540000	0.583931
2.545000	0.359131
2.550000	0.354196
2.555000	0.590501
2.560000	0.636876
2.565000	0.652146
2.570000	0.661191
2.575000	0.662676
2.580000	0.662061
2.585000	0.661091
2.590000	0.661741
2.595000	0.663786
2.600000	0.663211
2.605000	0.661176
2.610000	0.658191
2.615000	0.655101
2.620000	0.652411
2.625000	0.645821
2.630000	0.626866
2.635000	0.565221
2.640000	0.289096
2.645000	0.394401
2.650000	0.594551
2.655000	0.640056
2.660000	0.653351
2.665000	0.657011
2.670000	0.659006
2.675000	0.660561
2.680000	0.662871
2.685000	0.662671
2.690000	0.660471
2.695000	0.659611
2.700000	0.659606
2.705000	0.660641
2.710000	0.658511
2.715000	0.652391
2.720000	0.643111
2.725000	0.622061
2.730000	0.551161
2.735000	0.237546
2.740000	0.426551
2.745000	0.597086
2.750000	0.634731
2.755000	0.648151
2.760000	0.653651
2.765000	0.654881
2.770000	0.655121
2.775000	0.655241
2.780000	0.656291
2.785000	0.658691
2.790000	0.658571
2.795000	0.656811
2.800000	0.654811
2.805000	0.652731
2.810000	0.648301
2.815000	0.638796
2.820000	0.612736
2.825000	0.527731
2.830000	0.173464
2.835000	0.453631
2.840000	0.600271
2.845000	0.637231
2.850000	0.650791
2.855000	0.657126
2.860000	0.660011
2.865000	0.662941
2.870000	0.665446
2.875000	0.665916
2.880000	0.664546
2.885000	0.665166
2.890000	0.665421
2.895000	0.664791
2.900000	0.661171
2.905000	0.654026
2.910000	0.640981
2.915000	0.607656
2.920000	0.484136
2.925000	0.114048
2.930000	0.501026
2.935000	0.614401
2.940000	0.645226
2.945000	0.657836
2.950000	0.663806
2.955000	0.666156
2.960000	0.665631
2.965000	0.666931
2.970000	0.667961
2.975000	0.667761
2.980000	0.666511
2.985000	0.663656
2.990000	0.661051
2.995000	0.658311
3.000000	0.650231
3.005000	0.634341
3.010000	0.592861
3.015000	0.446641
3.020000	0.115281
3.025000	0.507121
3.030000	0.613061
3.035000	0.642901
3.040000	0.653531
3.045000	0.657871
3.050000	0.659621
3.055000	0.660461
3.060000	0.660126
3.065000	0.658761
3.070000	0.658541
3.075000	0.656546
3.080000	0.655126
3.085000	0.651631
3.090000	0.646141
3.095000	0.637721
3.100000	0.619326
3.105000	0.570636
3.110000	0.392311
3.115000	0.152816
3.120000	0.514071
3.125000	0.605761
3.130000	0.633941
3.135000	0.644306
3.140000	0.649441
3.145000	0.652961
3.150000	0.653651
3.155000	0.653361
3.160000	0.652441
3.165000	0.652181
3.170000	0.652981
3.175000	0.651401
3.180000	0.648281
3.185000	0.642846
3.190000	0.634051
3.195000	0.613216
3.200000	0.549296
3.205000	0.307176
3.210000	0.255066
3.215000	0.540526
3.220000	0.613341
3.225000	0.638281
3.230000	0.648311
3.235000	0.651701
3.240000	0.653761
3.245000	0.656086
3.250000	0.657651
3.255000	0.656971
3.260000	0.656751
3.265000	0.655971
3.270000	0.653466
3.275000	0.650671
3.280000	0.644161
3.285000	0.631736
3.290000	0.604246
3.295000	0.525266
3.300000	0.226366
3.305000	0.324521
3.310000	0.554831
3.315000	0.614096
3.320000	0.634656
3.325000	0.643551
3.330000	0.647751
3.335000	0.649751
3.340000	0.650581
3.345000	0.651486
3.350000	0.651801
3.355000	0.652351
3.360000	0.652001
3.365000	0.650901
3.370000	0.646541
3.375000	0.638576
3.380000	0.624871
3.385000	0.592296
3.390000	0.488476
3.395000	0.126595
3.400000	0.394061
3.405000	0.570491
3.410000	0.620216
3.415000	0.638311
3.420000	0.644611
3.425000	0.647786
3.430000	0.651061
3.435000	0.653626
3.440000	0.653921
3.445000	0.651501
3.450000	0.649646
3.455000	0.647656
3.460000	0.646641
3.465000	0.643221
3.470000	0.632461
3.475000	0.614111
3.480000	0.575206
3.485000	0.449821
3.490000	0.065474
3.495000	0.431336
3.500000	0.577846
