Frequenz/GHz	Spannung/V
2.000000	0.067292
2.040000	0.065889
2.080000	0.058022
2.120000	0.051271
2.160000	0.047129
2.200000	0.046248
2.240000	0.049392
2.280000	0.054408
2.320000	0.057075
2.360000	0.057579
2.400000	0.066969
2.440000	0.089738
2.480000	0.114689
2.520000	0.137706
2.560000	0.148733
2.600000	0.167618
2.640000	0.167524
2.680000	0.148567
2.720000	0.144042
2.760000	0.174561
2.800000	0.199644
2.840000	0.261611
2.880000	0.296971
2.920000	0.381351
2.960000	0.422991
3.000000	0.481511
3.040000	0.528876
3.080000	0.565561
3.120000	0.596231
3.160000	0.618416
3.200000	0.633426
3.240000	0.644401
3.280000	0.652811
3.320000	0.660591
3.360000	0.667491
3.400000	0.674991
3.440000	0.683046
3.480000	0.691021
3.520000	0.699596
3.560000	0.707121
3.600000	0.714581
3.640000	0.723921
3.680000	0.731686
3.720000	0.738761
3.760000	0.743036
3.800000	0.744011
3.840000	0.744276
3.880000	0.743931
3.920000	0.743111
3.960000	0.739711
4.000000	0.740416
4.040000	0.739286
4.080000	0.738491
4.120000	0.739881
4.160000	0.740671
4.200000	0.743541
4.240000	0.743546
4.280000	0.743236
4.320000	0.741276
4.360000	0.735946
4.400000	0.736056
4.440000	0.741546
4.480000	0.741966
4.520000	0.740586
4.560000	0.739876
4.600000	0.739736
4.640000	0.740696
4.680000	0.741526
4.720000	0.743631
4.760000	0.745551
4.800000	0.746391
4.840000	0.747011
4.880000	0.746391
4.920000	0.746986
4.960000	0.744976
5.000000	0.738136
5.040000	0.734026
5.080000	0.725426
5.120000	0.723841
5.160000	0.719981
5.200000	0.717246
5.240000	0.719681
5.280000	0.717121
5.320000	0.717781
5.360000	0.713461
5.400000	0.708486
5.440000	0.711356
5.480000	0.715851
5.520000	0.719796
5.560000	0.727731
5.600000	0.730636
5.640000	0.736731
5.680000	0.741846
5.720000	0.749116
5.760000	0.752606
5.800000	0.752356
5.840000	0.756011
5.880000	0.754781
5.920000	0.751691
5.960000	0.748511
6.000000	0.750876
6.040000	0.754771
6.080000	0.754926
6.120000	0.751371
6.160000	0.749621
6.200000	0.749936
6.240000	0.750176
6.280000	0.751761
6.320000	0.749506
6.360000	0.743211
6.400000	0.736891
6.440000	0.727811
6.480000	0.720081
6.520000	0.715631
6.560000	0.716036
6.600000	0.712411
6.640000	0.711621
6.680000	0.717121
6.720000	0.719931
6.760000	0.718036
6.800000	0.720326
6.840000	0.721421
6.880000	0.726246
6.920000	0.730466
6.960000	0.733176
7.000000	0.730946
7.040000	0.727981
7.080000	0.726791
7.120000	0.725641
7.160000	0.721151
7.200000	0.716201
7.240000	0.713721
7.280000	0.714391
7.320000	0.715131
7.360000	0.711526
7.400000	0.711616
7.440000	0.715106
7.480000	0.718066
7.520000	0.721261
7.560000	0.728521
7.600000	0.736746
7.640000	0.738981
7.680000	0.740126
7.720000	0.745701
7.760000	0.754181
7.800000	0.760036
7.840000	0.764306
7.880000	0.766061
7.920000	0.766916
7.960000	0.763491
8.000000	0.760666
8.040000	0.762726
8.080000	0.763541
8.120000	0.761536
8.160000	0.754556
8.200000	0.746151
8.240000	0.742166
8.280000	0.735166
8.320000	0.722806
8.360000	0.717556
8.400000	0.703146
8.440000	0.684136
8.480000	0.663511
8.520000	0.643156
8.560000	0.623506
8.600000	0.580311
8.640000	0.495391
8.680000	0.347421
8.720000	0.172742
8.760000	0.060351
8.800000	0.037811
8.840000	0.073753
8.880000	0.150293
8.920000	0.240861
8.960000	0.322356
9.000000	0.387081
9.040000	0.436676
9.080000	0.472161
9.120000	0.496881
9.160000	0.515586
9.200000	0.529776
9.240000	0.536661
9.280000	0.536651
9.320000	0.526151
9.360000	0.518971
9.400000	0.516291
9.440000	0.513776
9.480000	0.515171
9.520000	0.521621
9.560000	0.532461
9.600000	0.545531
9.640000	0.555951
9.680000	0.561976
9.720000	0.561466
9.760000	0.551106
9.800000	0.545281
9.840000	0.540851
9.880000	0.522036
9.920000	0.498646
9.960000	0.477526
10.000000	0.461096
