Frequenz/GHz	Spannung/V
2.000000	0.000375
2.040000	0.000313
2.080000	0.000621
2.120000	0.000551
2.160000	0.000195
2.200000	0.000137
2.240000	0.001101
2.280000	0.004163
2.320000	0.009826
2.360000	0.014681
2.400000	0.016405
2.440000	0.017404
2.480000	0.019972
2.520000	0.024807
2.560000	0.027160
2.600000	0.018532
2.640000	0.006869
2.680000	0.000198
2.720000	0.007405
2.760000	0.027037
2.800000	0.035013
2.840000	0.042163
2.880000	0.045579
2.920000	0.048133
2.960000	0.053324
3.000000	0.053913
3.040000	0.051039
3.080000	0.048854
3.120000	0.045750
3.160000	0.040800
3.200000	0.035128
3.240000	0.029764
3.280000	0.024921
3.320000	0.020673
3.360000	0.016987
3.400000	0.013811
3.440000	0.011116
3.480000	0.008851
3.520000	0.006969
3.560000	0.005436
3.600000	0.004182
3.640000	0.003168
3.680000	0.002360
3.720000	0.001722
3.760000	0.001227
3.800000	0.000858
3.840000	0.000582
3.880000	0.000386
3.920000	0.000250
3.960000	0.000160
4.000000	0.000095
4.040000	0.000053
4.080000	0.000048
4.120000	0.000034
4.160000	0.000028
4.200000	0.000023
4.240000	0.000020
4.280000	0.000008
4.320000	0.000003
4.360000	0.000003
4.400000	0.000005
4.440000	0.000011
4.480000	0.000063
4.520000	0.000074
4.560000	0.000083
4.600000	0.000132
4.640000	0.000141
4.680000	0.000147
4.720000	0.000160
4.760000	0.000203
4.800000	0.000207
4.840000	0.000216
4.880000	0.000221
4.920000	0.000225
4.960000	0.000230
5.000000	0.000235
5.040000	0.000236
5.080000	0.000232
5.120000	0.000223
5.160000	0.000213
5.200000	0.000201
5.240000	0.000192
5.280000	0.000180
5.320000	0.000172
5.360000	0.000173
5.400000	0.000178
5.440000	0.000124
5.480000	0.000047
5.520000	0.000038
5.560000	0.000023
5.600000	0.000022
5.640000	0.000075
5.680000	0.000121
5.720000	0.000129
5.760000	0.000145
5.800000	0.000210
5.840000	0.000256
5.880000	0.000306
5.920000	0.000362
5.960000	0.000422
6.000000	0.000481
6.040000	0.000544
6.080000	0.000604
6.120000	0.000660
6.160000	0.000712
6.200000	0.000762
6.240000	0.000773
6.280000	0.000828
6.320000	0.000832
6.360000	0.000843
6.400000	0.000847
6.440000	0.000850
6.480000	0.000854
6.520000	0.000850
6.560000	0.000846
6.600000	0.000910
6.640000	0.000901
6.680000	0.000788
6.720000	0.000688
6.760000	0.000588
6.800000	0.000480
6.840000	0.000356
6.880000	0.000242
6.920000	0.000170
6.960000	0.000118
7.000000	0.000108
7.040000	0.000042
7.080000	0.000032
7.120000	0.000024
7.160000	0.000015
7.200000	0.000012
7.240000	0.000010
7.280000	0.000057
7.320000	0.000071
7.360000	0.000130
7.400000	0.000150
7.440000	0.000213
7.480000	0.000266
7.520000	0.000327
7.560000	0.000392
7.600000	0.000464
7.640000	0.000531
7.680000	0.000589
7.720000	0.000635
7.760000	0.000641
7.800000	0.000647
7.840000	0.000647
7.880000	0.000588
7.920000	0.000525
7.960000	0.000443
8.000000	0.000351
8.040000	0.000258
8.080000	0.000161
8.120000	0.000083
8.160000	0.000037
8.200000	0.000039
8.240000	0.000124
8.280000	0.000315
8.320000	0.000644
8.360000	0.001166
8.400000	0.001940
8.440000	0.003069
8.480000	0.004743
8.520000	0.007278
8.560000	0.011237
8.600000	0.017366
8.640000	0.025882
8.680000	0.033955
8.720000	0.037528
8.760000	0.037431
8.800000	0.036487
8.840000	0.035716
8.880000	0.035041
8.920000	0.034617
8.960000	0.034509
9.000000	0.034718
9.040000	0.035273
9.080000	0.036265
9.120000	0.037751
9.160000	0.039657
9.200000	0.041835
9.240000	0.043997
9.280000	0.046381
9.320000	0.048936
9.360000	0.051754
9.400000	0.055200
9.440000	0.059225
9.480000	0.063909
9.520000	0.068958
9.560000	0.074237
9.600000	0.079244
9.640000	0.083864
9.680000	0.088164
9.720000	0.092549
9.760000	0.097543
9.800000	0.101436
9.840000	0.104583
9.880000	0.107792
9.920000	0.111462
9.960000	0.116628
10.000000	0.124521
