Frequenz/GHz	Spannung/V
0.010000	0.000383
0.104950	0.031932
0.199900	0.080894
0.294850	0.127664
0.389800	0.162539
0.484750	0.188463
0.579700	0.205309
0.674650	0.213606
0.769600	0.216261
0.864550	0.213911
0.959500	0.206121
1.054450	0.202771
1.149400	0.198701
1.244350	0.195721
1.339300	0.197521
1.434250	0.203101
1.529200	0.205051
1.624150	0.205361
1.719100	0.206341
1.814050	0.199156
1.909000	0.193371
2.003950	0.188413
2.098900	0.183198
2.193850	0.181772
2.288800	0.184591
2.383750	0.190484
2.478700	0.196993
2.573650	0.202884
2.668600	0.206752
2.763550	0.207571
2.858500	0.206114
2.953450	0.202482
3.048400	0.198432
3.143350	0.194778
3.238300	0.192786
3.333250	0.193343
3.428200	0.195887
3.523150	0.198590
3.618100	0.201272
3.713050	0.202162
3.808000	0.200863
3.902950	0.197861
3.997900	0.192481
4.092850	0.187426
4.187800	0.183299
4.282750	0.182130
4.377700	0.184336
4.472650	0.189355
4.567600	0.195353
4.662550	0.200937
4.757500	0.204710
4.852450	0.205731
4.947400	0.204070
5.042350	0.200124
5.137300	0.194813
5.232250	0.189999
5.327200	0.187466
5.422150	0.187926
5.517100	0.189948
5.612050	0.191932
5.707000	0.193766
5.801950	0.195282
5.896900	0.194255
5.991850	0.189807
6.086800	0.183265
6.181750	0.176856
6.276700	0.172165
6.371650	0.170700
6.466600	0.171465
6.561550	0.175663
6.656500	0.181084
6.751450	0.186751
6.846400	0.190339
6.941350	0.190770
7.036300	0.188724
7.131250	0.184584
7.226200	0.180666
7.321150	0.178126
7.416100	0.177576
7.511050	0.178651
7.606000	0.181544
7.700950	0.185168
7.795900	0.188531
7.890850	0.189898
7.985800	0.188515
8.080750	0.185836
8.175700	0.182837
8.270650	0.180019
8.365600	0.176474
8.460550	0.173668
8.555500	0.173636
8.650450	0.175514
8.745400	0.178375
8.840350	0.181577
8.935300	0.184810
9.030250	0.187535
9.125200	0.188164
9.220150	0.186552
9.315100	0.184591
9.410050	0.182253
9.505000	0.179956
9.599950	0.177956
9.694900	0.177822
9.789850	0.179541
9.884800	0.182182
9.979750	0.184484
10.074700	0.186763
10.169650	0.187100
10.264600	0.185091
10.359550	0.181635
10.454500	0.177540
10.549450	0.175035
10.644400	0.172999
10.739350	0.173976
10.834300	0.178141
10.929250	0.183432
11.024200	0.186742
11.119150	0.186946
11.214100	0.185950
11.309050	0.183257
11.404000	0.178673
11.498950	0.174435
11.593900	0.171713
11.688850	0.172021
11.783800	0.174949
11.878750	0.178757
11.973700	0.181843
12.068650	0.183400
12.163600	0.184898
12.258550	0.183871
12.353500	0.180861
12.448450	0.176388
12.543400	0.171729
12.638350	0.167817
12.733300	0.166914
12.828250	0.169772
12.923200	0.174151
13.018150	0.178408
13.113100	0.180267
13.208050	0.180207
13.303000	0.176666
13.397950	0.172415
13.492900	0.169356
13.587850	0.167051
13.682800	0.166057
13.777750	0.166715
13.872700	0.168216
13.967650	0.170506
14.062600	0.172159
14.157550	0.173794
14.252500	0.174857
14.347450	0.174740
14.442400	0.173046
14.537350	0.171138
14.632300	0.167398
14.727250	0.164646
14.822200	0.162381
14.917150	0.161955
15.012100	0.163058
15.107050	0.165801
15.202000	0.169485
15.296950	0.172987
15.391900	0.174742
15.486850	0.175181
15.581800	0.172897
15.676750	0.169667
15.771700	0.166674
15.866650	0.164582
15.961600	0.162657
16.056550	0.162209
16.151500	0.163223
16.246450	0.165958
16.341400	0.169564
16.436350	0.171539
16.531300	0.172168
16.626250	0.170116
16.721200	0.164155
16.816150	0.157599
16.911100	0.151159
17.006050	0.146940
17.101000	0.147847
17.195950	0.152970
17.290900	0.160682
17.385850	0.168335
17.480800	0.172477
17.575750	0.172677
17.670700	0.169105
17.765650	0.164184
17.860600	0.159307
17.955550	0.157146
18.050500	0.158486
18.145450	0.162912
18.240400	0.169410
18.335350	0.172729
18.430300	0.171599
18.525250	0.167960
18.620200	0.165532
18.715150	0.163033
18.810100	0.161686
18.905050	0.157471
19.000000	0.151594
