Frequenz/GHz	Spannung/V
0.010000	0.000001
0.104950	0.000001
0.199900	0.000050
0.294850	0.000187
0.389800	0.000424
0.484750	0.000727
0.579700	0.001045
0.674650	0.001266
0.769600	0.001344
0.864550	0.001200
0.959500	0.000885
1.054450	0.000510
1.149400	0.000244
1.244350	0.000243
1.339300	0.000559
1.434250	0.001108
1.529200	0.001695
1.624150	0.002046
1.719100	0.002164
1.814050	0.001840
1.909000	0.001298
2.003950	0.000729
2.098900	0.000394
2.193850	0.000518
2.288800	0.001133
2.383750	0.002064
2.478700	0.003016
2.573650	0.003709
2.668600	0.003961
2.763550	0.003711
2.858500	0.003090
2.953450	0.002266
3.048400	0.001480
3.143350	0.000924
3.238300	0.000677
3.333250	0.000681
3.428200	0.000847
3.523150	0.000967
3.618100	0.000969
3.713050	0.000850
3.808000	0.000664
3.902950	0.000494
3.997900	0.000384
4.092850	0.000338
4.187800	0.000327
4.282750	0.000246
4.377700	0.000136
4.472650	0.000029
4.567600	0.000032
4.662550	0.000260
4.757500	0.000717
4.852450	0.001326
4.947400	0.001912
5.042350	0.002263
5.137300	0.002220
5.232250	0.001748
5.327200	0.001013
5.422150	0.000341
5.517100	0.000102
5.612050	0.000552
5.707000	0.001668
5.801950	0.003158
5.896900	0.004548
5.991850	0.005338
6.086800	0.005266
6.181750	0.004275
6.276700	0.002651
6.371650	0.001018
6.466600	0.000099
6.561550	0.000455
6.656500	0.002142
6.751450	0.004660
6.846400	0.007199
6.941350	0.009039
7.036300	0.009722
7.131250	0.009033
7.226200	0.007169
7.321150	0.004695
7.416100	0.002348
7.511050	0.000857
7.606000	0.000707
7.700950	0.001829
7.795900	0.003628
7.890850	0.005363
7.985800	0.006487
8.080750	0.006744
8.175700	0.006105
8.270650	0.004805
8.365600	0.003247
8.460550	0.001929
8.555500	0.001187
8.650450	0.001072
8.745400	0.001389
8.840350	0.001822
8.935300	0.002139
9.030250	0.002256
9.125200	0.002245
9.220150	0.002152
9.315100	0.002151
9.410050	0.002228
9.505000	0.002310
9.599950	0.002230
9.694900	0.001882
9.789850	0.001286
9.884800	0.000610
9.979750	0.000112
10.074700	0.000031
10.169650	0.000468
10.264600	0.001313
10.359550	0.002266
10.454500	0.002925
10.549450	0.003040
10.644400	0.002541
10.739350	0.001650
10.834300	0.000746
10.929250	0.000291
11.024200	0.000610
11.119150	0.001683
11.214100	0.003163
11.309050	0.004520
11.404000	0.005263
11.498950	0.005147
11.593900	0.004165
11.688850	0.002651
11.783800	0.001176
11.878750	0.000409
11.973700	0.000701
12.068650	0.002008
12.163600	0.003889
12.258550	0.005458
12.353500	0.006252
12.448450	0.005927
12.543400	0.004574
12.638350	0.002671
12.733300	0.000951
12.828250	0.000053
12.923200	0.000294
13.018150	0.001549
13.113100	0.003293
13.208050	0.004845
13.303000	0.005624
13.397950	0.005478
13.492900	0.004571
13.587850	0.003335
13.682800	0.002232
13.777750	0.001561
13.872700	0.001425
13.967650	0.001701
14.062600	0.002050
14.157550	0.002163
14.252500	0.001911
14.347450	0.001401
14.442400	0.000900
14.537350	0.000745
14.632300	0.001125
14.727250	0.002005
14.822200	0.003057
14.917150	0.003845
15.012100	0.004045
15.107050	0.003490
15.202000	0.002337
15.296950	0.001045
15.391900	0.000177
15.486850	0.000172
15.581800	0.001078
15.676750	0.002694
15.771700	0.004435
15.866650	0.005665
15.961600	0.005961
16.056550	0.005353
16.151500	0.004190
16.246450	0.002888
16.341400	0.001947
16.436350	0.001654
16.531300	0.002054
16.626250	0.002891
16.721200	0.003648
16.816150	0.003894
16.911100	0.003479
17.006050	0.002651
17.101000	0.001816
17.195950	0.001332
17.290900	0.001516
17.385850	0.002432
17.480800	0.003773
17.575750	0.005101
17.670700	0.006059
17.765650	0.006415
17.860600	0.005789
17.955550	0.004322
18.050500	0.002531
18.145450	0.001088
18.240400	0.000719
18.335350	0.001665
18.430300	0.003540
18.525250	0.005663
18.620200	0.007558
18.715150	0.008712
18.810100	0.009136
18.905050	0.008512
19.000000	0.007109
