Frequenz/GHz	Spannung/V
0.010000	0.746031
0.104950	0.767516
0.199900	0.766856
0.294850	0.763546
0.389800	0.743646
0.484750	0.729931
0.579700	0.721286
0.674650	0.713146
0.769600	0.719191
0.864550	0.719146
0.959500	0.721206
1.054450	0.731366
1.149400	0.726381
1.244350	0.731941
1.339300	0.722396
1.434250	0.733691
1.529200	0.725931
1.624150	0.726776
1.719100	0.726721
1.814050	0.725851
1.909000	0.724926
2.003950	0.729316
2.098900	0.729016
2.193850	0.730441
2.288800	0.728716
2.383750	0.728906
2.478700	0.723791
2.573650	0.725191
2.668600	0.722036
2.763550	0.717991
2.858500	0.718566
2.953450	0.719521
3.048400	0.720881
3.143350	0.717831
3.238300	0.719126
3.333250	0.717331
3.428200	0.717361
3.523150	0.713521
3.618100	0.715011
3.713050	0.715011
3.808000	0.717771
3.902950	0.720066
3.997900	0.713081
4.092850	0.711061
4.187800	0.711071
4.282750	0.711741
4.377700	0.703591
4.472650	0.704511
4.567600	0.710936
4.662550	0.717821
4.757500	0.713581
4.852450	0.713951
4.947400	0.713131
5.042350	0.707311
5.137300	0.697286
5.232250	0.698476
5.327200	0.699436
5.422150	0.707476
5.517100	0.711796
5.612050	0.714131
5.707000	0.717666
5.801950	0.714521
5.896900	0.719061
5.991850	0.709601
6.086800	0.713021
6.181750	0.713961
6.276700	0.722536
6.371650	0.712781
6.466600	0.702261
6.561550	0.698836
6.656500	0.704801
6.751450	0.713786
6.846400	0.717481
6.941350	0.719206
7.036300	0.715786
7.131250	0.712261
7.226200	0.706961
7.321150	0.699391
7.416100	0.692041
7.511050	0.693761
7.606000	0.692321
7.700950	0.697431
7.795900	0.711226
7.890850	0.722951
7.985800	0.717331
8.080750	0.714881
8.175700	0.720611
8.270650	0.714646
8.365600	0.697296
8.460550	0.679731
8.555500	0.679921
8.650450	0.676001
8.745400	0.698781
8.840350	0.708966
8.935300	0.720386
9.030250	0.717201
9.125200	0.730976
9.220150	0.708681
9.315100	0.672901
9.410050	0.649736
9.505000	0.661821
9.599950	0.684076
9.694900	0.708146
9.789850	0.733346
9.884800	0.731041
9.979750	0.729841
10.074700	0.728561
10.169650	0.727031
10.264600	0.706991
10.359550	0.691676
10.454500	0.690291
10.549450	0.708116
10.644400	0.700236
10.739350	0.725951
10.834300	0.742576
10.929250	0.757041
11.024200	0.737341
11.119150	0.759701
11.214100	0.750211
11.309050	0.738591
11.404000	0.700286
11.498950	0.707321
11.593900	0.697061
11.688850	0.716291
11.783800	0.736071
11.878750	0.744016
11.973700	0.728956
12.068650	0.752136
12.163600	0.772796
12.258550	0.742361
12.353500	0.722841
12.448450	0.713746
12.543400	0.706001
12.638350	0.685966
12.733300	0.713016
12.828250	0.740506
12.923200	0.760636
13.018150	0.761491
13.113100	0.779341
13.208050	0.764271
13.303000	0.755916
13.397950	0.747391
13.492900	0.735611
13.587850	0.733656
13.682800	0.760316
13.777750	0.778126
13.872700	0.767471
13.967650	0.768466
14.062600	0.784286
14.157550	0.789671
14.252500	0.772076
14.347450	0.781411
14.442400	0.784981
14.537350	0.785561
14.632300	0.777381
14.727250	0.787106
14.822200	0.767906
14.917150	0.770361
15.012100	0.784181
15.107050	0.779921
15.202000	0.769296
15.296950	0.766941
15.391900	0.782366
15.486850	0.784321
15.581800	0.796836
15.676750	0.800976
15.771700	0.795711
15.866650	0.791641
15.961600	0.772611
16.056550	0.725336
16.151500	0.696276
16.246450	0.719871
16.341400	0.771636
16.436350	0.803011
16.531300	0.808901
16.626250	0.817551
16.721200	0.822611
16.816150	0.808351
16.911100	0.745196
17.006050	0.692491
17.101000	0.706581
17.195950	0.756921
17.290900	0.794436
17.385850	0.805361
17.480800	0.800491
17.575750	0.795726
17.670700	0.804816
17.765650	0.789216
17.860600	0.745156
17.955550	0.740536
18.050500	0.767796
18.145450	0.772731
18.240400	0.766541
18.335350	0.756181
18.430300	0.749926
18.525250	0.762891
18.620200	0.778551
18.715150	0.782031
18.810100	0.777316
18.905050	0.760461
19.000000	0.719111
