Frequenz/GHz	Spannung/V
3.000000	0.537606
3.030000	0.547521
3.060000	0.574031
3.090000	0.586861
3.120000	0.592681
3.150000	0.610361
3.180000	0.621341
3.210000	0.624411
3.240000	0.635246
3.270000	0.643531
3.300000	0.644026
3.330000	0.649806
3.360000	0.657011
3.390000	0.661176
3.420000	0.662171
3.450000	0.666096
3.480000	0.670381
3.510000	0.671131
3.540000	0.674251
3.570000	0.680346
3.600000	0.682081
3.630000	0.684051
3.660000	0.691736
3.690000	0.691911
3.720000	0.691281
3.750000	0.700401
3.780000	0.699961
3.810000	0.696326
3.840000	0.705546
3.870000	0.707216
3.900000	0.704521
3.930000	0.710931
3.960000	0.711866
3.990000	0.708556
4.020000	0.714596
4.050000	0.715596
4.080000	0.713091
4.110000	0.715706
4.140000	0.717491
4.170000	0.715991
4.200000	0.719681
4.230000	0.720861
4.260000	0.718211
4.290000	0.716086
4.320000	0.717251
4.350000	0.714801
4.380000	0.715431
4.410000	0.715441
4.440000	0.714021
4.470000	0.711931
4.500000	0.712781
4.530000	0.714131
4.560000	0.716596
4.590000	0.718091
4.620000	0.717381
4.650000	0.718196
4.680000	0.719961
4.710000	0.719201
4.740000	0.720256
4.770000	0.722226
4.800000	0.721121
4.830000	0.720791
4.860000	0.722971
4.890000	0.722146
4.920000	0.721201
4.950000	0.721806
4.980000	0.717901
5.010000	0.713851
5.040000	0.714306
5.070000	0.712811
5.100000	0.709491
5.130000	0.709491
5.160000	0.709521
5.190000	0.709351
5.220000	0.708046
5.250000	0.706866
5.280000	0.705026
5.310000	0.703151
5.340000	0.704871
5.370000	0.703611
5.400000	0.703206
5.430000	0.707781
5.460000	0.708821
5.490000	0.708536
5.520000	0.711771
5.550000	0.712491
5.580000	0.710681
5.610000	0.714376
5.640000	0.715871
5.670000	0.713751
5.700000	0.717161
5.730000	0.720706
5.760000	0.719371
5.790000	0.720256
5.820000	0.718721
5.850000	0.716251
5.880000	0.717566
5.910000	0.718651
5.940000	0.717096
5.970000	0.716776
6.000000	0.718156
6.030000	0.715411
6.060000	0.712961
6.090000	0.710921
6.120000	0.708191
6.150000	0.706716
6.180000	0.705161
6.210000	0.704966
6.240000	0.705891
6.270000	0.705436
6.300000	0.709686
6.330000	0.708731
6.360000	0.707756
6.390000	0.708101
6.420000	0.708466
6.450000	0.709136
6.480000	0.708466
6.510000	0.710576
6.540000	0.712111
6.570000	0.710961
6.600000	0.710196
6.630000	0.707006
6.660000	0.705131
6.690000	0.704481
6.720000	0.701381
6.750000	0.699471
6.780000	0.701061
6.810000	0.704241
6.840000	0.706056
6.870000	0.708721
6.900000	0.711646
6.930000	0.712871
6.960000	0.712991
6.990000	0.712976
7.020000	0.712426
7.050000	0.708286
7.080000	0.707241
7.110000	0.706351
7.140000	0.702261
7.170000	0.704051
7.200000	0.707831
7.230000	0.705771
7.260000	0.709651
7.290000	0.713096
7.320000	0.710371
7.350000	0.710006
7.380000	0.714111
7.410000	0.713241
7.440000	0.713221
7.470000	0.715961
7.500000	0.715141
7.530000	0.713616
7.560000	0.713026
7.590000	0.710661
7.620000	0.708706
7.650000	0.707591
7.680000	0.706911
7.710000	0.706646
7.740000	0.706041
7.770000	0.705276
7.800000	0.704346
7.830000	0.703746
7.860000	0.702231
7.890000	0.703451
7.920000	0.703786
7.950000	0.703041
7.980000	0.704656
8.010000	0.704696
8.040000	0.700541
8.070000	0.698131
8.100000	0.701571
8.130000	0.699076
8.160000	0.694181
8.190000	0.700136
8.220000	0.698126
8.250000	0.689991
8.280000	0.694791
8.310000	0.694781
8.340000	0.686381
8.370000	0.685051
8.400000	0.682871
8.430000	0.660121
8.460000	0.603951
8.490000	0.488741
8.520000	0.209531
8.550000	0.087570
8.580000	0.283626
8.610000	0.381401
8.640000	0.446231
8.670000	0.486841
8.700000	0.498621
8.730000	0.504346
8.760000	0.517376
8.790000	0.520921
8.820000	0.506781
8.850000	0.516436
8.880000	0.525941
8.910000	0.494186
8.940000	0.498056
8.970000	0.514526
9.000000	0.473131
