OOIBase32 Version 2.0.5.5 Data File
++++++++++++++++++++++++++++++++++++
Date: 01-14-2019, 17:06:21
User: Valued Ocean Optics Customer
Spectrometer Serial Number: USB2G10658
Spectrometer Channel: Master
Integration Time (msec): 1000
Spectra Averaged: 1
Boxcar Smoothing: 0
Correct for Electrical Dark: Enabled
Time Normalized: Disabled
Dual-beam Reference: Disabled
Reference Channel: Master
Temperature: Not acquired
Spectrometer Type: S2000
ADC Type: USB2000
Number of Pixels in File: 2048
Graph Title: 
>>>>>Begin Spectral Data<<<<<
178.46	0.000
178.84	0.000
179.22	-7.514
179.60	-10.896
179.98	-11.514
180.35	11.104
180.73	-2.514
181.11	0.104
181.49	1.486
181.87	-3.896
182.25	8.486
182.63	0.104
183.00	1.486
183.38	2.104
183.76	-4.514
184.14	-1.896
184.52	6.486
184.90	-5.896
185.27	2.486
185.65	-0.896
186.03	0.486
186.41	-0.896
186.79	2.486
187.16	32.104
187.54	2.486
187.92	16.104
188.30	8.486
188.68	3.104
189.05	6.486
189.43	7.104
189.81	13.486
190.19	5.104
190.57	8.486
190.94	7.104
191.32	16.486
191.70	4.104
192.08	7.486
192.45	5.104
192.83	5.486
193.21	22.104
193.59	10.486
193.96	11.104
194.34	8.486
194.72	6.104
195.10	12.486
195.47	50.104
195.85	10.486
196.23	11.104
196.61	10.486
196.98	5.104
197.36	13.486
197.74	18.104
198.12	9.486
198.49	11.104
198.87	11.486
199.25	13.104
199.62	22.486
200.00	9.104
200.38	7.486
200.76	19.104
201.13	6.486
201.51	12.104
201.89	12.486
202.26	7.104
202.64	12.486
203.02	10.104
203.39	15.486
203.77	12.104
204.15	13.486
204.52	9.104
204.90	20.486
205.28	9.104
205.65	13.486
206.03	47.104
206.41	15.486
206.78	12.104
207.16	11.486
207.54	9.104
207.91	13.486
208.29	5.104
208.67	13.486
209.04	16.104
209.42	38.486
209.80	6.104
210.17	14.486
210.55	15.104
210.93	13.486
211.30	18.104
211.68	16.486
212.05	14.104
212.43	7.486
212.81	7.104
213.18	16.486
213.56	15.104
213.94	16.486
214.31	10.104
214.69	11.486
215.06	9.104
215.44	12.486
215.82	29.104
216.19	18.486
216.57	19.104
216.94	15.486
217.32	12.104
217.69	15.486
218.07	14.104
218.45	20.486
218.82	11.104
219.20	29.486
219.57	12.104
219.95	13.486
220.32	11.104
220.70	17.486
221.08	26.104
221.45	19.486
221.83	17.104
222.20	18.486
222.58	9.104
222.95	13.486
223.33	16.104
223.70	36.486
224.08	17.104
224.45	30.486
224.83	15.104
225.20	19.486
225.58	10.104
225.96	16.486
226.33	58.104
226.71	16.486
227.08	16.104
227.46	18.486
227.83	12.104
228.21	32.486
228.58	14.104
228.96	10.486
229.33	15.104
229.71	22.486
230.08	14.104
230.45	18.486
230.83	13.104
231.20	19.486
231.58	50.104
231.95	24.486
232.33	15.104
232.70	19.486
233.08	23.104
233.45	13.486
233.83	20.104
234.20	19.486
234.58	16.104
234.95	22.486
235.33	17.104
235.70	26.486
236.07	18.104
236.45	24.486
236.82	16.104
237.20	18.486
237.57	24.104
237.95	24.486
238.32	19.104
238.69	49.486
239.07	20.104
239.44	18.486
239.82	13.104
240.19	18.486
240.56	27.104
240.94	20.486
241.31	18.104
241.69	29.486
242.06	19.104
242.43	25.486
242.81	15.104
243.18	23.486
243.56	12.104
243.93	30.486
244.30	46.104
244.68	16.486
245.05	22.104
245.42	23.486
245.80	18.104
246.17	22.486
246.55	18.104
246.92	30.486
247.29	20.104
247.67	26.486
248.04	18.104
248.41	27.486
248.79	37.104
249.16	25.486
249.53	32.104
249.91	25.486
250.28	20.104
250.65	26.486
251.03	17.104
251.40	25.486
251.77	20.104
252.15	23.486
252.52	29.104
252.89	28.486
253.26	33.104
253.64	21.486
254.01	27.104
254.38	31.486
254.76	29.104
255.13	28.486
255.50	24.104
255.87	23.486
256.25	30.104
256.62	37.486
256.99	26.104
257.37	55.486
257.74	28.104
258.11	32.486
258.48	23.104
258.86	33.486
259.23	27.104
259.60	23.486
259.97	24.104
260.35	34.486
260.72	28.104
261.09	24.486
261.46	26.104
261.84	28.486
262.21	20.104
262.58	27.486
262.95	30.104
263.33	31.486
263.70	31.104
264.07	29.486
264.44	29.104
264.81	34.486
265.19	23.104
265.56	26.486
265.93	32.104
266.30	37.486
266.67	32.104
267.05	29.486
267.42	30.104
267.79	32.486
268.16	36.104
268.53	39.486
268.91	31.104
269.28	30.486
269.65	34.104
270.02	31.486
270.39	37.104
270.76	35.486
271.14	30.104
271.51	34.486
271.88	38.104
272.25	29.486
272.62	33.104
272.99	33.486
273.36	39.104
273.74	44.486
274.11	36.104
274.48	37.486
274.85	33.104
275.22	34.486
275.59	33.104
275.96	34.486
276.33	33.104
276.71	35.486
277.08	34.104
277.45	38.486
277.82	51.104
278.19	41.486
278.56	33.104
278.93	40.486
279.30	38.104
279.67	48.486
280.04	34.104
280.42	47.486
280.79	40.104
281.16	39.486
281.53	40.104
281.90	51.486
282.27	39.104
282.64	48.486
283.01	37.104
283.38	43.486
283.75	31.104
284.12	43.486
284.49	77.104
284.86	46.486
285.23	38.104
285.60	46.486
285.97	50.104
286.34	41.486
286.71	47.104
287.09	51.486
287.46	44.104
287.83	56.486
288.20	39.104
288.57	58.486
288.94	51.104
289.31	44.486
289.68	42.104
290.05	55.486
290.42	40.104
290.79	47.486
291.16	51.104
291.53	53.486
291.90	50.104
292.27	48.486
292.64	40.104
293.01	47.486
293.38	57.104
293.74	52.486
294.11	61.104
294.48	59.486
294.85	55.104
295.22	59.486
295.59	49.104
295.96	56.486
296.33	46.104
296.70	55.486
297.07	48.104
297.44	61.486
297.81	52.104
298.18	54.486
298.55	55.104
298.92	58.486
299.29	55.104
299.66	58.486
300.03	63.104
300.39	61.486
300.76	60.104
301.13	68.486
301.50	55.104
301.87	66.486
302.24	56.104
302.61	70.486
302.98	59.104
303.35	67.486
303.72	55.104
304.08	66.486
304.45	69.104
304.82	65.486
305.19	72.104
305.56	99.486
305.93	63.104
306.30	71.486
306.67	66.104
307.03	69.486
307.40	63.104
307.77	73.486
308.14	67.104
308.51	84.486
308.88	76.104
309.24	85.486
309.61	69.104
309.98	77.486
310.35	88.104
310.72	92.486
311.09	87.104
311.45	84.486
311.82	94.104
312.19	89.486
312.56	82.104
312.93	93.486
313.29	85.104
313.66	95.486
314.03	91.104
314.40	101.486
314.77	94.104
315.13	132.486
315.50	108.104
315.87	99.486
316.24	105.104
316.61	113.486
316.97	96.104
317.34	115.486
317.71	105.104
318.08	119.486
318.44	116.104
318.81	123.486
319.18	123.104
319.55	131.486
319.91	134.104
320.28	135.486
320.65	141.104
321.02	148.486
321.38	140.104
321.75	143.486
322.12	146.104
322.49	151.486
322.85	162.104
323.22	164.486
323.59	177.104
323.95	179.486
324.32	207.104
324.69	191.486
325.05	190.104
325.42	206.486
325.79	214.104
326.16	233.486
326.52	241.104
326.89	249.486
327.26	257.104
327.62	287.486
327.99	296.104
328.36	326.486
328.72	347.104
329.09	416.486
329.46	673.104
329.82	997.486
330.19	1250.104
330.56	1158.485
330.92	991.104
331.29	956.486
331.66	983.104
332.02	1062.485
332.39	1172.104
332.75	1351.485
333.12	1583.104
333.49	1946.485
333.85	2483.104
334.22	3381.486
334.59	3913.104
334.95	3916.486
335.32	3913.104
335.68	3916.486
336.05	3913.104
336.42	3916.486
336.78	3913.104
337.15	3916.486
337.51	3913.104
337.88	3916.486
338.25	3913.104
338.61	3916.486
338.98	3913.104
339.34	3916.486
339.71	3610.104
340.07	2063.486
340.44	1596.104
340.81	1349.485
341.17	1111.104
341.54	912.486
341.90	764.104
342.27	645.486
342.63	576.104
343.00	519.486
343.36	445.104
343.73	430.486
344.09	360.104
344.46	348.486
344.82	317.104
345.19	297.486
345.55	270.104
345.92	293.486
346.28	240.104
346.65	228.486
347.01	222.104
347.38	205.486
347.74	256.104
348.11	188.486
348.47	188.104
348.84	171.486
349.20	161.104
349.57	174.486
349.93	162.104
350.30	150.486
350.66	152.104
351.03	161.486
351.39	167.104
351.76	137.486
352.12	128.104
352.49	135.486
352.85	113.104
353.22	124.486
353.58	126.104
353.94	123.486
354.31	116.104
354.67	110.486
355.04	106.104
355.40	107.486
355.77	116.104
356.13	101.486
356.49	107.104
356.86	106.486
357.22	95.104
357.59	94.486
357.95	108.104
358.31	99.486
358.68	91.104
359.04	90.486
359.41	88.104
359.77	87.486
360.13	81.104
360.50	85.486
360.86	84.104
361.22	77.486
361.59	77.104
361.95	79.486
362.32	80.104
362.68	86.486
363.04	79.104
363.41	69.486
363.77	76.104
364.13	76.486
364.50	71.104
364.86	81.486
365.22	71.104
365.59	68.486
365.95	74.104
366.31	82.486
366.68	95.104
367.04	97.486
367.40	73.104
367.77	73.486
368.13	68.104
368.49	66.486
368.85	63.104
369.22	68.486
369.58	78.104
369.94	66.486
370.31	62.104
370.67	85.486
371.03	55.104
371.39	65.486
371.76	59.104
372.12	66.486
372.48	60.104
372.85	63.486
373.21	62.104
373.57	60.486
373.93	60.104
374.30	59.486
374.66	57.104
375.02	58.486
375.38	50.104
375.74	64.486
376.11	54.104
376.47	62.486
376.83	54.104
377.19	54.486
377.56	53.104
377.92	77.486
378.28	50.104
378.64	56.486
379.00	53.104
379.37	51.486
379.73	52.104
380.09	53.486
380.45	48.104
380.81	56.486
381.18	50.104
381.54	59.486
381.90	47.104
382.26	48.486
382.62	44.104
382.98	51.486
383.35	48.104
383.71	50.486
384.07	46.104
384.43	43.486
384.79	43.104
385.15	44.486
385.51	45.104
385.88	85.486
386.24	42.104
386.60	47.486
386.96	40.104
387.32	41.486
387.68	45.104
388.04	51.486
388.40	38.104
388.77	49.486
389.13	52.104
389.49	45.486
389.85	38.104
390.21	43.486
390.57	37.104
390.93	42.486
391.29	68.104
391.65	43.486
392.01	41.104
392.37	46.486
392.74	63.104
393.10	45.486
393.46	37.104
393.82	39.486
394.18	30.104
394.54	39.486
394.90	35.104
395.26	40.486
395.62	38.104
395.98	41.486
396.34	43.104
396.70	45.486
397.06	34.104
397.42	32.486
397.78	33.104
398.14	36.486
398.50	36.104
398.86	38.486
399.22	33.104
399.58	37.486
399.94	43.104
400.30	68.486
400.66	31.104
401.02	43.486
401.38	35.104
401.74	42.486
402.10	32.104
402.46	33.486
402.82	33.104
403.18	37.486
403.54	40.104
403.90	37.486
404.26	33.104
404.62	38.486
404.98	32.104
405.34	37.486
405.70	32.104
406.06	32.486
406.42	29.104
406.78	37.486
407.13	26.104
407.49	35.486
407.85	27.104
408.21	35.486
408.57	30.104
408.93	36.486
409.29	25.104
409.65	26.486
410.01	26.104
410.37	27.486
410.73	40.104
411.08	32.486
411.44	28.104
411.80	26.486
412.16	26.104
412.52	26.486
412.88	14.104
413.24	26.486
413.60	30.104
413.95	30.486
414.31	20.104
414.67	51.486
415.03	24.104
415.39	29.486
415.75	21.104
416.10	22.486
416.46	21.104
416.82	37.486
417.18	21.104
417.54	27.486
417.90	20.104
418.25	30.486
418.61	55.104
418.97	28.486
419.33	25.104
419.69	27.486
420.04	24.104
420.40	28.486
420.76	54.104
421.12	32.486
421.48	23.104
421.83	23.486
422.19	23.104
422.55	34.486
422.91	18.104
423.26	31.486
423.62	32.104
423.98	30.486
424.34	29.104
424.69	19.486
425.05	22.104
425.41	23.486
425.77	20.104
426.12	24.486
426.48	24.104
426.84	26.486
427.20	17.104
427.55	20.486
427.91	15.104
428.27	24.486
428.62	14.104
428.98	20.486
429.34	18.104
429.70	53.486
430.05	21.104
430.41	27.486
430.77	30.104
431.12	26.486
431.48	27.104
431.84	33.486
432.19	15.104
432.55	26.486
432.91	18.104
433.26	22.486
433.62	13.104
433.98	19.486
434.33	22.104
434.69	33.486
435.05	15.104
435.40	27.486
435.76	20.104
436.12	21.486
436.47	16.104
436.83	14.486
437.18	20.104
437.54	21.486
437.90	23.104
438.25	13.486
438.61	18.104
438.96	23.486
439.32	19.104
439.68	16.486
440.03	10.104
440.39	19.486
440.74	21.104
441.10	16.486
441.46	19.104
441.81	18.486
442.17	35.104
442.52	15.486
442.88	18.104
443.23	21.486
443.59	19.104
443.95	12.486
444.30	21.104
444.66	17.486
445.01	19.104
445.37	14.486
445.72	16.104
446.08	22.486
446.43	8.104
446.79	13.486
447.14	12.104
447.50	23.486
447.85	14.104
448.21	19.486
448.56	11.104
448.92	19.486
449.27	19.104
449.63	10.486
449.98	14.104
450.34	31.486
450.69	14.104
451.05	22.486
451.40	24.104
451.76	18.486
452.11	29.104
452.47	31.486
452.82	10.104
453.18	11.486
453.53	14.104
453.88	18.486
454.24	8.104
454.59	19.486
454.95	17.104
455.30	31.486
455.66	12.104
456.01	8.486
456.36	16.104
456.72	11.486
457.07	9.104
457.43	10.486
457.78	15.104
458.13	16.486
458.49	20.104
458.84	18.486
459.20	26.104
459.55	11.486
459.90	30.104
460.26	20.486
460.61	13.104
460.97	11.486
461.32	18.104
461.67	9.486
462.03	10.104
462.38	12.486
462.73	8.104
463.09	11.486
463.44	14.104
463.79	15.486
464.15	32.104
464.50	12.486
464.85	10.104
465.21	17.486
465.56	12.104
465.91	59.486
466.27	41.104
466.62	22.486
466.97	15.104
467.33	13.486
467.68	15.104
468.03	46.486
468.38	10.104
468.74	11.486
469.09	8.104
469.44	10.486
469.80	16.104
470.15	13.486
470.50	10.104
470.85	16.486
471.21	10.104
471.56	14.486
471.91	5.104
472.26	15.486
472.62	9.104
472.97	15.486
473.32	20.104
473.67	10.486
474.03	10.104
474.38	13.486
474.73	8.104
475.08	10.486
475.43	8.104
475.79	14.486
476.14	10.104
476.49	9.486
476.84	5.104
477.19	9.486
477.55	10.104
477.90	17.486
478.25	9.104
478.60	9.486
478.95	11.104
479.30	10.486
479.66	12.104
480.01	15.486
480.36	8.104
480.71	8.486
481.06	4.104
481.41	11.486
481.77	2.104
482.12	14.486
482.47	8.104
482.82	14.486
483.17	19.104
483.52	8.486
483.87	8.104
484.22	13.486
484.58	6.104
484.93	14.486
485.28	57.104
485.63	9.486
485.98	9.104
486.33	12.486
486.68	17.104
487.03	10.486
487.38	11.104
487.73	9.486
488.08	8.104
488.44	12.486
488.79	31.104
489.14	6.486
489.49	0.104
489.84	5.486
490.19	4.104
490.54	9.486
490.89	7.104
491.24	8.486
491.59	10.104
491.94	12.486
492.29	10.104
492.64	18.486
492.99	9.104
493.34	17.486
493.69	11.104
494.04	37.486
494.39	26.104
494.74	12.486
495.09	6.104
495.44	17.486
495.79	17.104
496.14	7.486
496.49	2.104
496.84	12.486
497.19	4.104
497.54	12.486
497.89	5.104
498.24	4.486
498.59	7.104
498.94	13.486
499.29	9.104
499.64	6.486
499.99	2.104
500.34	8.486
500.68	18.104
501.03	14.486
501.38	8.104
501.73	11.486
502.08	6.104
502.43	6.486
502.78	2.104
503.13	7.486
503.48	6.104
503.83	6.486
504.18	2.104
504.52	8.486
504.87	3.104
505.22	10.486
505.57	12.104
505.92	28.486
506.27	3.104
506.62	57.486
506.97	3.104
507.31	2.486
507.66	5.104
508.01	4.486
508.36	55.104
508.71	8.486
509.06	1.104
509.40	13.486
509.75	3.104
510.10	4.486
510.45	10.104
510.80	5.486
511.15	4.104
511.49	7.486
511.84	9.104
512.19	7.486
512.54	2.104
512.89	9.486
513.23	12.104
513.58	6.486
513.93	7.104
514.28	7.486
514.62	6.104
514.97	8.486
515.32	10.104
515.67	8.486
516.01	8.104
516.36	5.486
516.71	30.104
517.06	3.486
517.40	46.104
517.75	5.486
518.10	-0.896
518.45	14.486
518.79	2.104
519.14	9.486
519.49	0.104
519.83	11.486
520.18	45.104
520.53	10.486
520.88	3.104
521.22	7.486
521.57	7.104
521.92	6.486
522.26	6.104
522.61	21.486
522.96	5.104
523.30	2.486
523.65	6.104
524.00	5.486
524.34	10.104
524.69	8.486
525.04	9.104
525.38	8.486
525.73	16.104
526.08	18.486
526.42	0.104
526.77	9.486
527.11	-0.896
527.46	5.486
527.81	1.104
528.15	5.486
528.50	-0.896
528.85	6.486
529.19	0.104
529.54	5.486
529.88	-2.896
530.23	7.486
530.57	1.104
530.92	5.486
531.27	13.104
531.61	12.486
531.96	0.104
532.30	9.486
532.65	5.104
532.99	9.486
533.34	2.104
533.69	6.486
534.03	6.104
534.38	25.486
534.72	13.104
535.07	4.486
535.41	1.104
535.76	-0.514
536.10	1.104
536.45	4.486
536.79	4.104
537.14	11.486
537.48	1.104
537.83	31.486
538.17	6.104
538.52	0.486
538.86	6.104
539.21	7.486
539.55	5.104
539.90	10.486
540.24	-2.896
540.59	9.486
540.93	5.104
541.28	12.486
541.62	3.104
541.96	0.486
542.31	5.104
542.65	4.486
543.00	-0.896
543.34	22.486
543.69	7.104
544.03	5.486
544.37	9.104
544.72	15.486
545.06	3.104
545.41	6.486
545.75	7.104
546.10	4.486
546.44	4.104
546.78	4.486
547.13	4.104
547.47	4.486
547.81	44.104
548.16	2.486
548.50	6.104
548.85	9.486
549.19	-1.896
549.53	0.486
549.88	4.104
550.22	12.486
550.56	13.104
550.91	32.486
551.25	0.104
551.59	4.486
551.94	4.104
552.28	5.486
552.62	3.104
552.97	5.486
553.31	2.104
553.65	5.486
554.00	3.104
554.34	5.486
554.68	1.104
555.02	10.486
555.37	8.104
555.71	7.486
556.05	1.104
556.40	30.486
556.74	-0.896
557.08	3.486
557.42	10.104
557.77	7.486
558.11	4.104
558.45	-1.514
558.79	0.104
559.14	12.486
559.48	4.104
559.82	1.486
560.16	6.104
560.50	8.486
560.85	-1.896
561.19	4.486
561.53	-0.896
561.87	8.486
562.22	2.104
562.56	10.486
562.90	-2.896
563.24	2.486
563.58	-1.896
563.92	13.486
564.27	2.104
564.61	0.486
564.95	5.104
565.29	2.486
565.63	1.104
565.97	5.486
566.32	2.104
566.66	5.486
567.00	-4.896
567.34	0.486
567.68	0.104
568.02	5.486
568.36	4.104
568.71	9.486
569.05	6.104
569.39	5.486
569.73	-0.896
570.07	3.486
570.41	0.104
570.75	13.486
571.09	11.104
571.43	3.486
571.77	-1.896
572.12	6.486
572.46	8.104
572.80	6.486
573.14	0.104
573.48	7.486
573.82	-2.896
574.16	6.486
574.50	-0.896
574.84	-0.514
575.18	-0.896
575.52	9.486
575.86	6.104
576.20	5.486
576.54	-5.896
576.88	6.486
577.22	-0.896
577.56	3.486
577.90	0.104
578.24	6.486
578.58	2.104
578.92	3.486
579.26	33.104
579.60	2.486
579.94	5.104
580.28	15.486
580.62	4.104
580.96	2.486
581.30	9.104
581.64	2.486
581.98	-0.896
582.32	-0.514
582.66	0.104
583.00	6.486
583.34	4.104
583.68	3.486
584.02	3.104
584.35	3.486
584.69	-2.896
585.03	0.486
585.37	-4.896
585.71	-0.514
586.05	-0.896
586.39	12.486
586.73	5.104
587.07	32.486
587.41	-4.896
587.74	11.486
588.08	0.104
588.42	4.486
588.76	-0.896
589.10	10.486
589.44	-2.896
589.78	3.486
590.12	2.104
590.45	2.486
590.79	-1.896
591.13	3.486
591.47	13.104
591.81	4.486
592.15	30.104
592.48	13.486
592.82	0.104
593.16	1.486
593.50	5.104
593.84	1.486
594.17	1.104
594.51	2.486
594.85	-0.896
595.19	-0.514
595.53	4.104
595.86	5.486
596.20	4.104
596.54	0.486
596.88	-1.896
597.21	8.486
597.55	-1.896
597.89	5.486
598.23	-3.896
598.56	3.486
598.90	6.104
599.24	5.486
599.58	-0.896
599.91	9.486
600.25	11.104
600.59	1.486
600.92	1.104
601.26	1.486
601.60	-3.896
601.94	13.486
602.27	12.104
602.61	6.486
602.95	-1.896
603.28	9.486
603.62	10.104
603.96	-3.514
604.29	2.104
604.63	6.486
604.97	8.104
605.30	4.486
605.64	-0.896
605.98	6.486
606.31	2.104
606.65	5.486
606.98	19.104
607.32	0.486
607.66	-5.896
607.99	6.486
608.33	-3.896
608.67	2.486
609.00	10.104
609.34	6.486
609.67	31.104
610.01	5.486
610.34	-4.896
610.68	6.486
611.02	5.104
611.35	1.486
611.69	1.104
612.02	1.486
612.36	-2.896
612.69	0.486
613.03	0.104
613.37	0.486
613.70	-3.896
614.04	8.486
614.37	4.104
614.71	5.486
615.04	-1.896
615.38	-5.514
615.71	1.104
616.05	-3.514
616.38	-2.896
616.72	-0.514
617.05	2.104
617.39	-0.514
617.72	-4.896
618.06	12.486
618.39	4.104
618.73	5.486
619.06	-2.896
619.40	0.486
619.73	3.104
620.07	1.486
620.40	-8.896
620.73	5.486
621.07	-5.896
621.40	3.486
621.74	-2.896
622.07	4.486
622.41	6.104
622.74	2.486
623.07	7.104
623.41	6.486
623.74	3.104
624.08	4.486
624.41	-0.896
624.75	6.486
625.08	0.104
625.41	4.486
625.75	0.104
626.08	8.486
626.41	0.104
626.75	-2.514
627.08	-0.896
627.42	4.486
627.75	11.104
628.08	0.486
628.42	1.104
628.75	4.486
629.08	-3.896
629.42	-5.514
629.75	-3.896
630.08	4.486
630.42	3.104
630.75	4.486
631.08	2.104
631.41	0.486
631.75	-0.896
632.08	3.486
632.41	11.104
632.75	5.486
633.08	1.104
633.41	1.486
633.74	-3.896
634.08	-0.514
634.41	-2.896
634.74	6.486
635.08	-2.896
635.41	5.486
635.74	-0.896
636.07	-0.514
636.40	-2.896
636.74	2.486
637.07	-4.896
637.40	1.486
637.73	-5.896
638.07	-4.514
638.40	-4.896
638.73	-1.514
639.06	6.104
639.39	1.486
639.73	8.104
640.06	2.486
640.39	4.104
640.72	9.486
641.05	0.104
641.38	-2.514
641.72	4.104
642.05	0.486
642.38	0.104
642.71	-2.514
643.04	-4.896
643.37	-2.514
643.71	-2.896
644.04	5.486
644.37	0.104
644.70	1.486
645.03	34.104
645.36	0.486
645.69	3.104
646.02	-0.514
646.35	9.104
646.69	2.486
647.02	2.104
647.35	9.486
647.68	11.104
648.01	1.486
648.34	5.104
648.67	11.486
649.00	0.104
649.33	-0.514
649.66	-3.896
649.99	4.486
650.32	-1.896
650.65	5.486
650.98	-3.896
651.31	3.486
651.64	2.104
651.97	4.486
652.30	6.104
652.63	-1.514
652.96	2.104
653.29	-0.514
653.62	24.104
653.95	4.486
654.28	-1.896
654.61	1.486
654.94	68.104
655.27	9.486
655.60	-1.896
655.93	1.486
656.26	4.104
656.59	-5.514
656.92	-3.896
657.25	15.486
657.58	-5.896
657.91	1.486
658.24	-1.896
658.57	6.486
658.90	3.104
659.23	4.486
659.56	7.104
659.89	9.486
660.21	-3.896
660.54	-1.514
660.87	3.104
661.20	3.486
661.53	-5.896
661.86	-1.514
662.19	-4.896
662.52	4.486
662.85	-0.896
663.17	1.486
663.50	-4.896
663.83	7.486
664.16	-5.896
664.49	7.486
664.82	-3.896
665.14	4.486
665.47	0.104
665.80	2.486
666.13	-2.896
666.46	0.486
666.79	-2.896
667.11	1.486
667.44	-0.896
667.77	0.486
668.10	7.104
668.43	-2.514
668.75	-5.896
669.08	2.486
669.41	-4.896
669.74	-0.514
670.06	0.104
670.39	13.486
670.72	-0.896
671.05	0.486
671.37	-3.896
671.70	0.486
672.03	-3.896
672.36	2.486
672.68	-0.896
673.01	6.486
673.34	4.104
673.67	0.486
673.99	2.104
674.32	7.486
674.65	-2.896
674.97	3.486
675.30	3.104
675.63	9.486
675.95	-4.896
676.28	4.486
676.61	-3.896
676.93	6.486
677.26	3.104
677.59	-1.514
677.91	13.104
678.24	9.486
678.57	8.104
678.89	4.486
679.22	-0.896
679.55	4.486
679.87	1.104
680.20	10.486
680.52	-0.896
680.85	1.486
681.18	-3.896
681.50	-1.514
681.83	-4.896
682.15	10.486
682.48	-4.896
682.81	-2.514
683.13	30.104
683.46	-0.514
683.78	4.104
684.11	4.486
684.43	1.104
684.76	16.486
685.09	12.104
685.41	1.486
685.74	0.104
686.06	3.486
686.39	3.104
686.71	7.486
687.04	8.104
687.36	6.486
687.69	18.104
688.01	6.486
688.34	-5.896
688.66	2.486
688.99	0.104
689.31	7.486
689.64	-0.896
689.96	-1.514
690.29	-5.896
690.61	1.486
690.94	-2.896
691.26	2.486
691.58	44.104
691.91	7.486
692.23	-2.896
692.56	6.486
692.88	0.104
693.21	-3.514
693.53	9.104
693.86	-0.514
694.18	3.104
694.50	-3.514
694.83	-6.896
695.15	4.486
695.48	-3.896
695.80	1.486
696.12	-0.896
696.45	6.486
696.77	-3.896
697.09	2.486
697.42	-4.896
697.74	2.486
698.07	-3.896
698.39	4.486
698.71	-2.896
699.04	-1.514
699.36	-0.896
699.68	2.486
700.01	-3.896
700.33	4.486
700.65	-3.896
700.98	0.486
701.30	-1.896
701.62	1.486
701.94	-1.896
702.27	0.486
702.59	-9.896
702.91	2.486
703.24	1.104
703.56	5.486
703.88	-3.896
704.20	3.486
704.53	3.104
704.85	8.486
705.17	7.104
705.49	0.486
705.82	-2.896
706.14	1.486
706.46	0.104
706.78	1.486
707.11	5.104
707.43	11.486
707.75	6.104
708.07	7.486
708.39	8.104
708.72	6.486
709.04	-3.896
709.36	7.486
709.68	-4.896
710.00	2.486
710.32	6.104
710.65	10.486
710.97	4.104
711.29	8.486
711.61	0.104
711.93	0.486
712.25	-4.896
712.58	-0.514
712.90	2.104
713.22	1.486
713.54	7.104
713.86	0.486
714.18	2.104
714.50	4.486
714.82	-1.896
715.14	-1.514
715.47	0.104
715.79	2.486
716.11	-0.896
716.43	-4.514
716.75	0.104
717.07	0.486
717.39	4.104
717.71	2.486
718.03	3.104
718.35	37.486
718.67	-1.896
718.99	0.486
719.31	-3.896
719.63	1.486
719.95	116.104
720.27	6.486
720.59	40.104
720.91	23.486
721.23	10.104
721.55	5.486
721.87	-5.896
722.19	-2.514
722.51	3.104
722.83	0.486
723.15	-1.896
723.47	5.486
723.79	4.104
724.11	9.486
724.43	-1.896
724.75	-0.514
725.07	11.104
725.39	6.486
725.71	3.104
726.03	5.486
726.35	0.104
726.67	3.486
726.99	4.104
727.31	6.486
727.62	2.104
727.94	3.486
728.26	-0.896
728.58	1.486
728.90	3.104
729.22	4.486
729.54	5.104
729.86	6.486
730.18	-1.896
730.49	3.486
730.81	-0.896
731.13	7.486
731.45	2.104
731.77	27.486
732.09	-2.896
732.40	0.486
732.72	-4.896
733.04	14.486
733.36	-1.896
733.68	11.486
734.00	1.104
734.31	2.486
734.63	-5.896
734.95	1.486
735.27	-2.896
735.58	0.486
735.90	0.104
736.22	2.486
736.54	-3.896
736.86	5.486
737.17	-0.896
737.49	2.486
737.81	-2.896
738.13	27.486
738.44	7.104
738.76	5.486
739.08	-0.896
739.39	2.486
739.71	2.104
740.03	-1.514
740.35	6.104
740.66	9.486
740.98	-4.896
741.30	-3.514
741.61	-4.896
741.93	-4.514
742.25	0.104
742.56	3.486
742.88	-0.896
743.20	0.486
743.51	-1.896
743.83	7.486
744.15	12.104
744.46	23.486
744.78	-6.896
745.10	-2.514
745.41	-3.896
745.73	3.486
746.04	0.104
746.36	8.486
746.68	-5.896
746.99	4.486
747.31	-3.896
747.63	5.486
747.94	0.104
748.26	1.486
748.57	-5.896
748.89	-2.514
749.20	2.104
749.52	-2.514
749.84	-2.896
750.15	12.486
750.47	4.104
750.78	11.486
751.10	2.104
751.41	2.486
751.73	-2.896
752.04	1.486
752.36	9.104
752.67	-0.514
752.99	18.104
753.30	-1.514
753.62	1.104
753.93	1.486
754.25	1.104
754.56	1.486
754.88	-1.896
755.19	1.486
755.51	0.104
755.82	1.486
756.14	0.104
756.45	8.486
756.76	0.104
757.08	1.486
757.39	-5.896
757.71	31.486
758.02	-4.896
758.34	5.486
758.65	-4.896
758.96	4.486
759.28	9.104
759.59	4.486
759.91	-2.896
760.22	3.486
760.53	-5.896
760.85	1.486
761.16	0.104
761.48	34.486
761.79	-4.896
762.10	4.486
762.42	-5.896
762.73	3.486
763.04	-1.896
763.36	4.486
763.67	-6.896
763.98	51.486
764.30	-3.896
764.61	-2.514
764.92	6.104
765.24	14.486
765.55	-2.896
765.86	29.486
766.17	15.104
766.49	4.486
766.80	5.104
767.11	-2.514
767.43	-2.896
767.74	7.486
768.05	0.104
768.36	3.486
768.68	-0.896
768.99	2.486
769.30	3.104
769.61	-1.514
769.93	4.104
770.24	19.486
770.55	-0.896
770.86	-1.514
771.17	-0.896
771.49	1.486
771.80	-2.896
772.11	-2.514
772.42	8.104
772.73	6.486
773.05	-1.896
773.36	3.486
773.67	-0.896
773.98	1.486
774.29	-4.896
774.60	1.486
774.91	-1.896
775.23	14.486
775.54	-4.896
775.85	13.486
776.16	19.104
776.47	2.486
776.78	-0.896
777.09	1.486
777.40	-1.896
777.72	-2.514
778.03	8.104
778.34	7.486
778.65	6.104
778.96	9.486
779.27	11.104
779.58	5.486
779.89	9.104
780.20	-1.514
780.51	6.104
780.82	12.486
781.13	1.104
781.44	0.486
781.75	3.104
782.06	-0.514
782.37	0.104
782.68	8.486
782.99	4.104
783.30	-4.514
783.61	-3.896
783.92	-3.514
784.23	-2.896
784.54	-1.514
784.85	-5.896
785.16	2.486
785.47	1.104
785.78	0.486
786.09	4.104
786.40	1.486
786.71	10.104
787.02	-1.514
787.33	-2.896
787.64	-1.514
787.95	-0.896
788.26	12.486
788.57	12.104
788.88	1.486
789.19	-6.896
789.50	1.486
789.80	-3.896
790.11	10.486
790.42	2.104
790.73	5.486
791.04	-1.896
791.35	7.486
791.66	2.104
791.97	-6.514
792.27	0.104
792.58	1.486
792.89	0.104
793.20	7.486
793.51	-2.896
793.82	6.486
794.12	-2.896
794.43	5.486
794.74	3.104
795.05	23.486
795.36	-5.896
795.66	38.486
795.97	-4.896
796.28	1.486
796.59	-2.896
796.90	0.486
797.20	-2.896
797.51	7.486
797.82	-4.896
798.13	33.486
798.43	41.104
798.74	0.486
799.05	-7.896
799.36	-1.514
799.66	-2.896
799.97	4.486
800.28	-2.896
800.59	3.486
800.89	71.104
801.20	-4.514
801.51	6.104
801.81	-3.514
802.12	-3.896
802.43	1.486
802.73	14.104
803.04	6.486
803.35	1.104
803.65	-1.514
803.96	1.104
804.27	7.486
804.57	5.104
804.88	14.486
805.19	2.104
805.49	8.486
805.80	-2.896
806.10	1.486
806.41	4.104
806.72	1.486
807.02	-1.896
807.33	1.486
807.63	-3.896
807.94	5.486
808.25	9.104
808.55	5.486
808.86	-0.896
809.16	1260.485
809.47	33.104
809.77	5.486
810.08	3.104
810.39	4.486
810.69	17.104
811.00	-1.514
811.30	-5.896
811.61	0.486
811.91	-2.896
812.22	3.486
812.52	-1.896
812.83	-0.514
813.13	0.104
813.44	-0.514
813.74	-1.896
814.05	6.486
814.35	47.104
814.66	0.486
814.96	-5.896
815.26	1.486
815.57	-0.896
815.87	5.486
816.18	3.104
816.48	0.486
816.79	3.104
817.09	1.486
817.40	-1.896
817.70	4.486
818.00	-4.896
818.31	5.486
818.61	-3.896
818.92	7.486
819.22	-0.896
819.52	3.486
819.83	-0.896
820.13	-0.514
820.43	9.104
820.74	34.486
821.04	1.104
821.34	4.486
821.65	-2.896
821.95	-1.514
822.25	1.104
822.56	7.486
822.86	19.104
823.16	-1.514
823.47	-0.896
823.77	0.486
824.07	2.104
824.38	4.486
824.68	-1.896
824.98	25.486
825.29	-2.896
825.59	1.486
825.89	-0.896
826.19	1.486
826.50	-2.896
826.80	3.486
827.10	6.104
827.40	0.486
827.71	32.104
828.01	7.486
828.31	13.104
828.61	4.486
828.91	-0.896
829.22	11.486
829.52	9.104
829.82	0.486
830.12	-2.896
830.42	2.486
830.73	7.104
831.03	-0.514
831.33	3.104
831.63	0.486
831.93	-0.896
832.23	-0.514
832.54	34.104
832.84	6.486
833.14	0.104
833.44	10.486
833.74	2.104
834.04	7.486
834.34	8.104
834.64	5.486
834.95	5.104
835.25	16.486
835.55	-2.896
835.85	3.486
836.15	0.104
836.45	-2.514
836.75	-1.896
837.05	-3.514
837.35	-1.896
837.65	4.486
837.95	-3.896
838.25	-1.514
838.55	7.104
838.85	1.486
839.16	-0.896
839.46	6.486
839.76	5.104
840.06	57.486
840.36	-1.896
840.66	-1.514
840.96	1.104
841.26	1.486
841.56	0.104
841.86	-1.514
842.15	-0.896
842.45	0.486
842.75	-2.896
843.05	17.486
843.35	1.104
843.65	-3.514
843.95	-2.896
844.25	1.486
844.55	18.104
844.85	4.486
845.15	5.104
845.45	1.486
845.75	-1.896
846.05	-3.514
846.35	-2.896
846.64	-2.514
846.94	-4.896
847.24	5.486
847.54	-1.896
847.84	1.486
848.14	0.104
848.44	6.486
848.74	0.104
849.03	7.486
849.33	-4.896
849.63	2.486
849.93	-6.896
850.23	-2.514
850.53	1.104
850.82	-2.514
851.12	0.104
851.42	3.486
851.72	-2.896
852.02	3.486
852.31	-1.896
852.61	-3.514
852.91	-7.896
853.21	3.486
853.50	-2.896
853.80	0.486
854.10	2.104
854.40	0.486
854.69	-5.896
854.99	-1.514
855.29	1.104
855.59	3.486
855.88	3.104
856.18	11.486
856.48	3.104
856.77	3.486
857.07	-3.896
857.37	6.486
857.67	-4.896
857.96	4.486
858.26	2.104
858.56	-2.514
858.85	-7.896
859.15	-0.514
859.45	4.104
859.74	-4.514
860.04	-4.896
860.33	33.486
860.63	0.104
860.93	-0.514
861.22	-2.896
861.52	6.486
861.82	3.104
862.11	-1.514
862.41	-6.896
862.70	3.486
863.00	0.104
863.30	1.486
863.59	-1.896
863.89	10.486
864.18	0.104
864.48	0.486
864.77	-0.896
865.07	-1.514
865.36	-4.896
865.66	0.486
865.95	3.104
866.25	17.486
866.55	-4.896
866.84	0.486
867.14	4.104
867.43	1.486
867.73	-2.896
868.02	0.486
868.32	0.104
868.61	24.486
868.90	-1.896
869.20	12.486
869.49	2.104
869.79	-1.514
870.08	-2.896
870.38	5.486
870.67	3.104
870.97	13.486
871.26	-1.896
871.56	-2.514
871.85	-3.896
872.14	5.486
872.44	-2.896
872.73	-3.514
873.03	-5.896
873.32	0.486
873.61	1.104
873.91	8.486
874.20	3.104
874.49	-3.514
874.79	4.104
875.08	-2.514
875.37	0.104
875.67	-0.514
875.96	46.104
876.26	4.486
876.55	-0.896
>>>>>End Spectral Data<<<<<
